Crystalline Silicate
      3.50000
Ref: Li & Greenberg 1998, A&A, 331, 291; Aigen Li <agli@strw.leidenuniv.nl> to Wyatt (May 8, 2000)
    1181
Wavelength (microns), Re(eps), Im(eps)
      2980.00      10.6552    0.0281285
      2960.00      10.6574    0.0283215
      2940.00      10.6579    0.0285148
      2920.00      10.6579    0.0287100
      2900.00      10.6579    0.0289081
      2880.00      10.6579    0.0291088
      2860.00      10.6579    0.0293124
      2840.00      10.6579    0.0295187
      2820.00      10.6579    0.0297281
      2800.00      10.6579    0.0299406
      2780.00      10.6579    0.0301560
      2760.00      10.6579    0.0303745
      2740.00      10.6579    0.0305962
      2720.00      10.6579    0.0308212
      2700.00      10.6579    0.0310496
      2680.00      10.6579    0.0312812
      2660.00      10.6580    0.0315165
      2640.00      10.6580    0.0317553
      2620.00      10.6580    0.0319977
      2600.00      10.6580    0.0322437
      2580.00      10.6580    0.0324937
      2560.00      10.6580    0.0327476
      2540.00      10.6580    0.0330056
      2520.00      10.6580    0.0332675
      2500.00      10.6580    0.0335337
      2480.00      10.6580    0.0338041
      2460.00      10.6580    0.0340788
      2440.00      10.6581    0.0343583
      2420.00      10.6581    0.0346423
      2400.00      10.6581    0.0349310
      2380.00      10.6581    0.0352245
      2360.00      10.6582    0.0355232
      2340.00      10.6582    0.0358268
      2320.00      10.6582    0.0361356
      2300.00      10.6582    0.0364499
      2280.00      10.6582    0.0367696
      2260.00      10.6582    0.0370950
      2240.00      10.6582    0.0374263
      2220.00      10.6582    0.0377635
      2200.00      10.6582    0.0381068
      2180.00      10.6583    0.0384564
      2160.00      10.6583    0.0388124
      2140.00      10.6583    0.0391753
      2120.00      10.6584    0.0395450
      2100.00      10.6584    0.0399216
      2080.00      10.6584    0.0403055
      2060.00      10.6584    0.0406968
      2040.01      10.6584    0.0410959
      2020.01      10.6584    0.0415028
      2000.01      10.6585    0.0419179
      1980.01      10.6585    0.0423415
      1960.01      10.6585    0.0427735
      1940.01      10.6585    0.0432145
      1920.01      10.6585    0.0436647
      1900.01      10.6586    0.0441243
      1880.01      10.6586    0.0445939
      1860.01      10.6587    0.0450735
      1840.01      10.6587    0.0455635
      1820.01      10.6587    0.0460643
      1800.01      10.6587    0.0465761
      1780.01      10.6588    0.0470995
      1760.01      10.6588    0.0476347
      1740.01      10.6589    0.0481824
      1720.01      10.6589    0.0487427
      1700.01      10.6589    0.0493164
      1680.01      10.6590    0.0499036
      1660.01      10.6590    0.0505049
      1640.01      10.6591    0.0511208
      1620.01      10.6591    0.0517520
      1600.01      10.6591    0.0523991
      1580.01      10.6592    0.0530625
      1560.01      10.6592    0.0537429
      1540.01      10.6593    0.0544412
      1520.01      10.6594    0.0551576
      1500.01      10.6594    0.0558929
      1480.01      10.6595    0.0566487
      1460.01      10.6595    0.0574245
      1440.01      10.6596    0.0582226
      1420.01      10.6596    0.0590426
      1400.01      10.6597    0.0598864
      1380.01      10.6598    0.0607545
      1360.01      10.6598    0.0616479
      1340.01      10.6599    0.0625683
      1320.01      10.6600    0.0635165
      1300.01      10.6601    0.0644940
      1280.01      10.6602    0.0655026
      1260.01      10.6603    0.0665420
      1240.01      10.6604    0.0676164
      1220.01      10.6605    0.0687243
      1200.01      10.6606    0.0698699
      1180.01      10.6607    0.0710549
      1160.01      10.6608    0.0722797
      1140.01      10.6609    0.0735484
      1120.01      10.6611    0.0748627
      1100.01      10.6612    0.0762247
      1080.01      10.6614    0.0776360
      1060.01      10.6616    0.0791022
      1040.01      10.6617    0.0806242
      1020.01      10.6619    0.0822054
      1000.01      10.6620    0.0838503
      995.005      10.6621    0.0842718
      990.005      10.6621    0.0846978
      985.005      10.6622    0.0851278
      980.005      10.6623    0.0855624
      975.005      10.6623    0.0860021
      970.005      10.6623    0.0864449
      965.005      10.6624    0.0868932
      960.005      10.6625    0.0873454
      955.005      10.6625    0.0878028
      950.005      10.6626    0.0882654
      945.005      10.6627    0.0887327
      940.005      10.6627    0.0892051
      935.005      10.6627    0.0896819
      930.005      10.6628    0.0901648
      925.005      10.6628    0.0906523
      920.005      10.6629    0.0911450
      915.005      10.6630    0.0916435
      910.005      10.6630    0.0921474
      905.005      10.6631    0.0926571
      900.005      10.6632    0.0931720
      895.005      10.6632    0.0936928
      890.005      10.6633    0.0942188
      885.005      10.6633    0.0947514
      880.005      10.6634    0.0952905
      875.005      10.6635    0.0958355
      870.005      10.6636    0.0963866
      865.005      10.6637    0.0969447
      860.005      10.6638    0.0975083
      855.005      10.6639    0.0980787
      850.005      10.6639    0.0986557
      845.005      10.6640    0.0992399
      840.005      10.6640    0.0998313
      835.005      10.6641     0.100429
      830.005      10.6642     0.101035
      825.005      10.6643     0.101647
      820.005      10.6644     0.102268
      815.005      10.6645     0.102896
      810.005      10.6646     0.103532
      805.005      10.6647     0.104175
      800.005      10.6647     0.104826
      795.005      10.6649     0.105486
      790.005      10.6650     0.106155
      785.005      10.6651     0.106831
      780.005      10.6651     0.107516
      775.005      10.6652     0.108211
      770.005      10.6654     0.108913
      765.005      10.6655     0.109626
      760.005      10.6656     0.110348
      755.005      10.6657     0.111079
      750.005      10.6657     0.111820
      745.005      10.6659     0.112571
      740.005      10.6660     0.113332
      735.005      10.6661     0.114104
      730.005      10.6663     0.114886
      725.005      10.6664     0.115679
      720.005      10.6666     0.116484
      715.005      10.6667     0.117300
      710.005      10.6668     0.118126
      705.005      10.6669     0.118964
      700.005      10.6671     0.119815
      695.005      10.6672     0.120678
      690.005      10.6674     0.121553
      685.005      10.6675     0.122441
      680.005      10.6676     0.123342
      675.005      10.6678     0.124257
      670.005      10.6680     0.125185
      665.005      10.6681     0.126128
      660.005      10.6683     0.127083
      655.005      10.6685     0.128055
      650.005      10.6687     0.129041
      645.005      10.6688     0.130042
      640.005      10.6690     0.131060
      635.005      10.6692     0.132093
      630.005      10.6694     0.133143
      625.005      10.6696     0.134209
      620.005      10.6698     0.135292
      615.005      10.6700     0.136394
      610.005      10.6702     0.137514
      605.005      10.6704     0.138651
      600.005      10.6706     0.139808
      595.005      10.6709     0.140984
      590.005      10.6711     0.142181
      585.005      10.6714     0.143398
      580.005      10.6716     0.144635
      575.005      10.6718     0.145895
      570.005      10.6721     0.147177
      565.005      10.6724     0.148481
      560.005      10.6727     0.149809
      555.005      10.6729     0.151161
      550.005      10.6732     0.152537
      545.005      10.6735     0.153938
      540.005      10.6738     0.155366
      535.005      10.6742     0.156821
      530.005      10.6745     0.158303
      525.005      10.6748     0.159812
      520.005      10.6752     0.161352
      515.005      10.6755     0.162921
      510.005      10.6759     0.164521
      505.005      10.6762     0.166153
      500.005      10.6766     0.167818
      495.005      10.6770     0.169516
      490.005      10.6774     0.171249
      485.005      10.6778     0.173018
      480.005      10.6783     0.174824
      475.005      10.6787     0.176668
      470.005      10.6791     0.178552
      465.005      10.6797     0.180476
      460.005      10.6802     0.182442
      455.005      10.6807     0.184452
      450.005      10.6812     0.186507
      445.005      10.6817     0.188606
      440.005      10.6823     0.190754
      435.005      10.6829     0.192952
      430.005      10.6835     0.195202
      425.005      10.6841     0.197505
      420.005      10.6848     0.199862
      415.005      10.6855     0.202277
      410.005      10.6862     0.204750
      405.005      10.6869     0.207285
      400.005      10.6877     0.209884
      395.005      10.6884     0.212549
      390.005      10.6893     0.215282
      385.005      10.6901     0.218087
      380.005      10.6910     0.220967
      375.005      10.6919     0.223922
      370.005      10.6929     0.226958
      365.005      10.6939     0.230078
      360.005      10.6949     0.233285
      355.005      10.6960     0.236585
      350.005      10.6972     0.239977
      345.005      10.6984     0.243469
      340.005      10.6996     0.247064
      335.005      10.7009     0.250768
      330.005      10.7022     0.254584
      325.005      10.7037     0.258518
      320.005      10.7052     0.262577
      315.005      10.7068     0.266765
      310.005      10.7085     0.271089
      305.005      10.7102     0.275556
      300.005      10.7121     0.280174
      295.005      10.7140     0.284949
      290.005      10.7160     0.289890
      285.005      10.7181     0.295005
      280.005      10.7204     0.300307
      275.005      10.7229     0.305803
      270.005      10.7254     0.311504
      265.005      10.7281     0.317421
      260.005      10.7309     0.323570
      255.005      10.7340     0.329962
      250.005      10.7372     0.336615
      245.005      10.7407     0.343542
      240.005      10.7444     0.350760
      235.005      10.7483     0.358292
      230.005      10.7526     0.366156
      225.005      10.7572     0.374373
      220.005      10.7621     0.382971
      215.005      10.7674     0.391979
      210.005      10.7731     0.401420
      205.005      10.7794     0.411333
      200.005      10.7862     0.421754
      195.005      10.7937     0.432721
      190.005      10.8023     0.444306
      185.005      10.8117     0.457538
      180.005      10.8213     0.471591
      175.005      10.8316     0.486509
      170.005      10.8428     0.502437
      165.005      10.8549     0.519427
      160.005      10.8680     0.537603
      155.005      10.8825     0.557092
      150.005      10.8985     0.578032
      145.005      10.9160     0.600565
      140.005      10.9355     0.624921
      135.005      10.9574     0.651270
      130.005      10.9818     0.679848
      125.005      11.0093     0.710980
      120.005      11.0407     0.744954
      115.005      11.0769     0.782194
      110.005      11.1188     0.823188
      105.005      11.1681     0.868565
      100.005      11.2268     0.919211
      99.5050      11.2333     0.924607
      99.0050      11.2400     0.930062
      98.5050      11.2467     0.935594
      98.0050      11.2536     0.941194
      97.5050      11.2607     0.946871
      97.0050      11.2678     0.952603
      96.5050      11.2751     0.958419
      96.0050      11.2825     0.964312
      95.5050      11.2902     0.970287
      95.0050      11.2980     0.976336
      94.5050      11.3060     0.982475
      94.0050      11.3141     0.988696
      93.5050      11.3224     0.994996
      93.0050      11.3309      1.00140
      92.5050      11.3395      1.00788
      92.0050      11.3484      1.01448
      91.5050      11.3575      1.02116
      91.0050      11.3668      1.02795
      90.5050      11.3763      1.03484
      90.0050      11.3860      1.04186
      89.5050      11.3959      1.04897
      89.0050      11.4060      1.05621
      88.5050      11.4165      1.06357
      88.0050      11.4271      1.07106
      87.5050      11.4380      1.07868
      87.0050      11.4491      1.08642
      86.5050      11.4606      1.09432
      86.0050      11.4724      1.10236
      85.5050      11.4844      1.11055
      85.0050      11.4967      1.11891
      84.5050      11.5093      1.12743
      84.0050      11.5223      1.13613
      83.5050      11.5357      1.14500
      83.0050      11.5493      1.15405
      82.5050      11.5633      1.16331
      82.0050      11.5777      1.17278
      81.5050      11.5924      1.18245
      81.0050      11.6076      1.19236
      80.5050      11.6231      1.20250
      80.0050      11.6392      1.21288
      79.5050      11.6556      1.22353
      79.0050      11.6725      1.23446
      78.5050      11.6899      1.24567
      78.0050      11.7078      1.25717
      77.5050      11.7261      1.26899
      77.0050      11.7450      1.28114
      76.5050      11.7645      1.29365
      76.0050      11.7844      1.30653
      75.5050      11.8050      1.31979
      75.0050      11.8261      1.33346
      74.5050      11.8480      1.34757
      74.0050      11.8704      1.36214
      73.5050      11.8935      1.37717
      73.0050      11.9173      1.39272
      72.5050      11.9418      1.40882
      72.0050      11.9670      1.42547
      71.5050      11.9929      1.44272
      71.0050      12.0197      1.46062
      70.5050      12.0473      1.47918
      70.0050      12.0756      1.49845
      69.5050      12.1049      1.51848
      69.0050      12.1351      1.53933
      68.5050      12.1661      1.56101
      68.0050      12.1981      1.58359
      67.5050      12.2311      1.60712
      67.0050      12.2650      1.63166
      66.5050      12.3000      1.65727
      66.0050      12.3360      1.68403
      65.5050      12.3731      1.71198
      65.0050      12.4113      1.74122
      64.5050      12.4506      1.77182
      64.0050      12.4910      1.80385
      63.5050      12.5326      1.83742
      63.0050      12.5754      1.87260
      62.5050      12.6194      1.90950
      62.0050      12.6646      1.94822
      61.5050      12.7109      1.98885
      61.0050      12.7586      2.03153
      60.5050      12.8074      2.07636
      60.0050      12.8575      2.12345
      59.5050      12.9087      2.17291
      59.0050      12.9611      2.22490
      58.5050      13.0147      2.27952
      58.0050      13.0693      2.33689
      57.5050      13.1250      2.39711
      57.0050      13.1818      2.46031
      56.5050      13.2394      2.52660
      56.0050      13.2980      2.59604
      55.5050      13.3573      2.66871
      55.0050      13.4174      2.74464
      54.5050      13.4781      2.82385
      54.0050      13.5395      2.90631
      53.5050      13.6014      2.99196
      53.0050      13.6639      3.08066
      52.5050      13.7272      3.17225
      52.0050      13.7911      3.26646
      51.5050      13.8560      3.36303
      51.0050      13.9226      3.46160
      50.5050      13.9911      3.56177
      50.0050      14.0625      3.66313
      49.5050      14.1379      3.76530
      49.0050      14.2189      3.86798
      48.5050      14.3072      3.97097
      48.0050      14.4052      4.07440
      47.5050      14.5157      4.17870
      47.0050      14.6423      4.28487
      46.5050      14.7891      4.39459
      46.0050      14.9603      4.51042
      45.5050      15.1617      4.63620
      45.0050      15.3988      4.77719
      44.5050      15.6785      4.94064
      44.0050      16.0080      5.13629
      43.5050      16.3952      5.37723
      43.0050      16.8490      5.68133
      42.5050      17.3776      6.07264
      42.0050      17.9904      6.58542
      41.5050      18.6915      7.26702
      41.0050      19.4861      8.18749
      40.5050      20.3321      9.46485
      40.0050      21.1810      11.2247
      39.5050      21.8684      13.6438
      39.0050      22.0138      16.9295
      38.5050      20.8997      21.1882
      38.0050      17.6061      25.7101
      37.5050      11.5097      28.7556
      37.0050      4.06027      28.3156
      36.5050     -1.47804      24.0781
      36.0050     -3.83074      18.8842
      35.5050     -3.98159      14.4127
      35.0050     -3.04398      11.0977
      34.5050     -1.70596      8.75948
      34.0050    -0.269793      7.13043
      33.5050      1.15446      6.00210
      33.0050      2.54372      5.23668
      32.5050      3.91470      4.75282
      32.0050      5.30947      4.51085
      31.5050      6.78700      4.50527
      31.0050      8.46828      4.80750
      30.5050      10.5122      5.60821
      30.0050      13.0341      7.68181
      29.5050      15.6917      12.5285
      29.0050      10.0585      22.4781
      28.5050     -1.05689      18.9874
      28.0050    -0.109792      11.7274
      27.5050      2.45293      11.2730
      27.0050      2.95686      12.7824
      26.5050      1.19862      14.5103
      26.0050     -2.11327      14.3604
      25.5050     -4.62975      11.9314
      25.0050     -5.26385      8.91761
      24.9550     -5.24399      8.64263
      24.9050     -5.21306      8.37536
      24.8550     -5.17205      8.11597
      24.8050     -5.12198      7.86470
      24.7550     -5.06361      7.62170
      24.7050     -4.99775      7.38706
      24.6550     -4.92510      7.16074
      24.6050     -4.84637      6.94276
      24.5550     -4.76219      6.73295
      24.5050     -4.67317      6.53128
      24.4550     -4.58001      6.33757
      24.4050     -4.48307      6.15164
      24.3550     -4.38289      5.97337
      24.3050     -4.27992      5.80258
      24.2550     -4.17449      5.63900
      24.2050     -4.06696      5.48240
      24.1550     -3.95766      5.33258
      24.1050     -3.84684      5.18936
      24.0550     -3.73472      5.05242
      24.0050     -3.62161      4.92167
      23.9550     -3.50759      4.79681
      23.9050     -3.39293      4.67774
      23.8550     -3.27775      4.56418
      23.8050     -3.16218      4.45602
      23.7550     -3.04634      4.35306
      23.7050     -2.93031      4.25517
      23.6550     -2.81425      4.16220
      23.6050     -2.69813      4.07400
      23.5550     -2.58210      3.99041
      23.5050     -2.46615      3.91139
      23.4550     -2.35035      3.83680
      23.4050     -2.23466      3.76658
      23.3550     -2.11916      3.70061
      23.3050     -2.00378      3.63888
      23.2550     -1.88859      3.58134
      23.2050     -1.77361      3.52800
      23.1550     -1.65882      3.47879
      23.1050     -1.54427      3.43382
      23.0550     -1.43005      3.39318
      23.0050     -1.31612      3.35693
      22.9550     -1.20250      3.32515
      22.9050     -1.08920      3.29796
      22.8550    -0.976365      3.27565
      22.8050    -0.864342      3.25811
      22.7550    -0.753202      3.24595
      22.7050    -0.643082      3.23956
      22.6550    -0.534480      3.23930
      22.6050    -0.427848      3.24550
      22.5550    -0.323070      3.25789
      22.5050    -0.222220      3.27716
      22.4550    -0.126771      3.30357
      22.4050   -0.0381577      3.33705
      22.3550    0.0422858      3.37729
      22.3050     0.113524      3.42490
      22.2550     0.174381      3.47559
      22.2050     0.224079      3.52672
      22.1550     0.262637      3.57532
      22.1050     0.289629      3.61824
      22.0550     0.306127      3.65281
      22.0050     0.317554      3.67831
      21.9550     0.327743      3.69401
      21.9050     0.340587      3.70001
      21.8550     0.361334      3.69616
      21.8050     0.391058      3.68532
      21.7550     0.429492      3.67133
