Organic Refractory
      1.80000
Ref: Li & Greenberg 1997, A&A, 323, 566; Li to Kolokolova (?) to Wyatt (Sep 20, 1999)
    1181
Wavelength (microns), Re(eps), Im(eps)
      2980.00      4.75776  0.000383029
      2960.00      4.75776  0.000385826
      2940.00      4.75776  0.000388658
      2920.00      4.75776  0.000391522
      2900.00      4.75776  0.000394421
      2880.00      4.75776  0.000397354
      2860.00      4.75776  0.000400323
      2840.00      4.75776  0.000403329
      2820.00      4.75776  0.000406371
      2800.00      4.75776  0.000409452
      2780.00      4.75776  0.000412573
      2760.00      4.75776  0.000415735
      2740.00      4.75776  0.000418936
      2720.00      4.75776  0.000422179
      2700.00      4.75776  0.000425466
      2680.00      4.75776  0.000428797
      2660.00      4.75776  0.000432171
      2640.00      4.75776  0.000435589
      2620.00      4.75776  0.000439055
      2600.00      4.75776  0.000442567
      2580.00      4.75776  0.000446136
      2560.00      4.75776  0.000449748
      2540.00      4.75776  0.000453412
      2520.00      4.75776  0.000457129
      2500.00      4.75776  0.000460903
      2480.00      4.75776  0.000464724
      2460.00      4.75776  0.000468602
      2440.00      4.75776  0.000472542
      2420.00      4.75776  0.000476542
      2400.00      4.75776  0.000480604
      2380.00      4.75776  0.000484722
      2360.00      4.75776  0.000488905
      2340.00      4.75776  0.000493154
      2320.00      4.75776  0.000497477
      2300.00      4.75776  0.000501862
      2280.00      4.75776  0.000506316
      2260.00      4.75776  0.000510844
      2240.00      4.75776  0.000515446
      2220.00      4.75776  0.000520127
      2200.00      4.75776  0.000524887
      2180.00      4.75776  0.000529725
      2160.00      4.75776  0.000534646
      2140.00      4.75776  0.000539654
      2120.00      4.75776  0.000544749
      2100.00      4.75776  0.000549932
      2080.00      4.75776  0.000555206
      2060.00      4.75776  0.000560580
      2040.01      4.75776  0.000566051
      2020.01      4.75776  0.000571626
      2000.01      4.75776  0.000577302
      1980.01      4.75776  0.000583086
      1960.01      4.75776  0.000588980
      1940.01      4.75776  0.000594992
      1920.01      4.75776  0.000601116
      1900.01      4.75776  0.000607359
      1880.01      4.75776  0.000613733
      1860.01      4.75776  0.000620237
      1840.01      4.75776  0.000626868
      1820.01      4.75776  0.000633639
      1800.01      4.75776  0.000640557
      1780.01      4.75776  0.000647625
      1760.01      4.75776  0.000654836
      1740.01      4.75776  0.000662204
      1720.01      4.75776  0.000669742
      1700.01      4.75776  0.000677446
      1680.01      4.75776  0.000685325
      1660.01      4.75776  0.000693383
      1640.01      4.75776  0.000701636
      1620.01      4.75776  0.000710073
      1600.01      4.75776  0.000718720
      1580.01      4.75776  0.000727575
      1560.01      4.75776  0.000736645
      1540.01      4.75776  0.000745937
      1520.01      4.75776  0.000755469
      1500.01      4.75776  0.000765254
      1480.01      4.75776  0.000775288
      1460.01      4.75776  0.000785579
      1440.01      4.75776  0.000796149
      1420.01      4.75776  0.000807012
      1400.01      4.75776  0.000818171
      1380.01      4.75776  0.000829635
      1360.01      4.75776  0.000841440
      1340.01      4.75776  0.000853581
      1320.01      4.75776  0.000866084
      1300.01      4.75776  0.000878957
      1280.01      4.75776  0.000892219
      1260.01      4.75776  0.000905887
      1240.01      4.75776  0.000919986
      1220.01      4.75776  0.000934539
      1200.01      4.75776  0.000949564
      1180.01      4.75776  0.000965077
      1160.01      4.75776  0.000981126
      1140.01      4.75776  0.000997721
      1120.01      4.75776   0.00101490
      1100.01      4.75776   0.00103267
      1080.01      4.75776   0.00105110
      1060.01      4.75776   0.00107024
      1040.01      4.75776   0.00109006
      1020.01      4.75776   0.00111065
      1000.01      4.75776   0.00113206
      995.005      4.75776   0.00113754
      990.005      4.75776   0.00114308
      985.005      4.75776   0.00114867
      980.005      4.75776   0.00115432
      975.005      4.75776   0.00116003
      970.005      4.75776   0.00116580
      965.005      4.75776   0.00117162
      960.005      4.75776   0.00117750
      955.005      4.75776   0.00118344
      950.005      4.75776   0.00118945
      945.005      4.75776   0.00119552
      940.005      4.75776   0.00120165
      935.005      4.75776   0.00120785
      930.005      4.75776   0.00121411
      925.005      4.75776   0.00122043
      920.005      4.75776   0.00122683
      915.005      4.75776   0.00123329
      910.005      4.75776   0.00123983
      905.005      4.75776   0.00124644
      900.005      4.75776   0.00125312
      895.005      4.75776   0.00125987
      890.005      4.75776   0.00126669
      885.005      4.75776   0.00127360
      880.005      4.75776   0.00128058
      875.005      4.75776   0.00128764
      870.005      4.75776   0.00129478
      865.005      4.75776   0.00130200
      860.005      4.75776   0.00130931
      855.005      4.75776   0.00131670
      850.005      4.75776   0.00132417
      845.005      4.75776   0.00133173
      840.005      4.75776   0.00133938
      835.005      4.75776   0.00134712
      830.005      4.75776   0.00135495
      825.005      4.75776   0.00136288
      820.005      4.75776   0.00137090
      815.005      4.75776   0.00137902
      810.005      4.75776   0.00138724
      805.005      4.75776   0.00139556
      800.005      4.75776   0.00140398
      795.005      4.75776   0.00141251
      790.005      4.75776   0.00142114
      785.005      4.75776   0.00142988
      780.005      4.75776   0.00143874
      775.005      4.75776   0.00144770
      770.005      4.75776   0.00145679
      765.005      4.75776   0.00146599
      760.005      4.75776   0.00147531
      755.005      4.75776   0.00148475
      750.005      4.75776   0.00149432
      745.005      4.75776   0.00150401
      740.005      4.75776   0.00151384
      735.005      4.75776   0.00152380
      730.005      4.75776   0.00153389
      725.005      4.75776   0.00154411
      720.005      4.75776   0.00155448
      715.005      4.75776   0.00156500
      710.005      4.75776   0.00157566
      705.005      4.75776   0.00158647
      700.005      4.75776   0.00159743
      695.005      4.75776   0.00160855
      690.005      4.75776   0.00161983
      685.005      4.75776   0.00163128
      680.005      4.75776   0.00164289
      675.005      4.75776   0.00165468
      670.005      4.75776   0.00166663
      665.005      4.75776   0.00167875
      660.005      4.75776   0.00169103
      655.005      4.75776   0.00170355
      650.005      4.75776   0.00171636
      645.005      4.75776   0.00172950
      640.005      4.75776   0.00174291
      635.005      4.75776   0.00175654
      630.005      4.75776   0.00177044
      625.005      4.75776   0.00178439
      620.005      4.75776   0.00179818
      615.005      4.75776   0.00181169
      610.005      4.75781   0.00182539
      605.005      4.75781   0.00184035
      600.005      4.75781   0.00185592
      595.005      4.75781   0.00187088
      590.005      4.75781   0.00188624
      585.005      4.75781   0.00190198
      580.005      4.75781   0.00191702
      575.005      4.75781   0.00193229
      570.005      4.75781   0.00194911
      565.005      4.75781   0.00196816
      560.005      4.75781   0.00198452
      555.005      4.75781   0.00199905
      550.005      4.75781   0.00202340
      545.005      4.75781   0.00205078
      540.005      4.75781   0.00207320
      535.005      4.75781   0.00209439
      530.005      4.75781   0.00211504
      525.005      4.75781   0.00213463
      520.005      4.75781   0.00215315
      515.005      4.75781   0.00217287
      510.005      4.75781   0.00219511
      505.005      4.75781   0.00221771
      500.005      4.75781   0.00223626
      495.005      4.75781   0.00225895
      490.005      4.75781   0.00228532
      485.005      4.75781   0.00230833
      480.005      4.75781   0.00232984
      475.005      4.75781   0.00235356
      470.005      4.75785   0.00237799
      465.005      4.75785   0.00240165
      460.005      4.75785   0.00242722
      455.005      4.75785   0.00245386
      450.005      4.75785   0.00248061
      445.005      4.75785   0.00250965
      440.005      4.75785   0.00253839
      435.005      4.75785   0.00256421
      430.005      4.75785   0.00259323
      425.005      4.75785   0.00262130
      420.005      4.75785   0.00265238
      415.005      4.75785   0.00268665
      410.005      4.75785   0.00272107
      405.005      4.75789   0.00275696
      400.005      4.75789   0.00279493
      395.005      4.75789   0.00283241
      390.005      4.75789   0.00286869
      385.005      4.75789   0.00290445
      380.005      4.75789   0.00294165
      375.005      4.75789   0.00297972
      370.005      4.75789   0.00301857
      365.005      4.75789   0.00305955
      360.005      4.75789   0.00310386
      355.005      4.75789   0.00314700
      350.005      4.75794   0.00319276
      345.005      4.75794   0.00323984
      340.005      4.75794   0.00328542
      335.005      4.75794   0.00333304
      330.005      4.75794   0.00338192
      325.005      4.75794   0.00343217
      320.005      4.75794   0.00348414
      315.005      4.75794   0.00353768
      310.005      4.75798   0.00359388
      305.005      4.75798   0.00365157
      300.005      4.75798   0.00371130
      295.005      4.75798   0.00377339
      290.005      4.75802   0.00383788
      285.005      4.75802   0.00390489
      280.005      4.75802   0.00397447
      275.005      4.75802   0.00404677
      270.005      4.75807   0.00412190
      265.005      4.75807   0.00419995
      260.005      4.75807   0.00428112
      255.005      4.75811   0.00436554
      250.005      4.75811   0.00445332
      245.005      4.75811   0.00454472
      240.005      4.75816   0.00463997
      235.005      4.75816   0.00473927
      230.005      4.75820   0.00484277
      225.005      4.75820   0.00495083
      220.005      4.75824   0.00506381
      215.005      4.75824   0.00518195
      210.005      4.75829   0.00530565
      205.005      4.75829   0.00543510
      200.005      4.75833   0.00557080
      195.005      4.75837   0.00571353
      190.005      4.75842   0.00586381
      185.005      4.75842   0.00602235
      180.005      4.75846   0.00618974
      175.005      4.75850   0.00636672
      170.005      4.75855   0.00655413
      165.005      4.75864   0.00675284
      160.005      4.75868   0.00696403
      155.005      4.75872   0.00718875
      150.005      4.75881   0.00742843
      145.005      4.75889   0.00768456
      140.005      4.75898   0.00795911
      135.005      4.75907   0.00825399
      130.005      4.75916   0.00857157
      125.005      4.75929   0.00891450
      120.005      4.75942   0.00928607
      115.005      4.75959   0.00969006
      110.005      4.75977    0.0101306
      105.005      4.75998    0.0106132
      100.005      4.76020    0.0111442
      99.5050      4.76024    0.0112002
      99.0050      4.76029    0.0112568
      98.5050      4.76029    0.0113139
      98.0050      4.76033    0.0113717
      97.5050      4.76033    0.0114300
      97.0050      4.76037    0.0114890
      96.5050      4.76037    0.0115485
      96.0050      4.76042    0.0116087
      95.5050      4.76046    0.0116696
      95.0050      4.76051    0.0117310
      94.5050      4.76051    0.0117931
      94.0050      4.76055    0.0118559
      93.5050      4.76055    0.0119193
      93.0050      4.76059    0.0119834
      92.5050      4.76064    0.0120483
      92.0050      4.76068    0.0121138
      91.5050      4.76068    0.0121799
      91.0050      4.76072    0.0122469
      90.5050      4.76077    0.0123147
      90.0050      4.76081    0.0123832
      89.5050      4.76085    0.0124524
      89.0050      4.76090    0.0125224
      88.5050      4.76090    0.0125932
      88.0050      4.76094    0.0126648
      87.5050      4.76098    0.0127372
      87.0050      4.76103    0.0128104
      86.5050      4.76107    0.0128845
      86.0050      4.76112    0.0129595
      85.5050      4.76111    0.0130353
      85.0050      4.76120    0.0131120
      84.5050      4.76125    0.0131897
      84.0050      4.76129    0.0132682
      83.5050      4.76133    0.0133478
      83.0050      4.76138    0.0134282
      82.5050      4.76142    0.0135097
      82.0050      4.76146    0.0135921
      81.5050      4.76151    0.0136756
      81.0050      4.76155    0.0137601
      80.5050      4.76164    0.0138456
      80.0050      4.76164    0.0139322
      79.5050      4.76172    0.0140199
      79.0050      4.76177    0.0141087
      78.5050      4.76181    0.0141986
      78.0050      4.76186    0.0142897
      77.5050      4.76190    0.0143819
      77.0050      4.76199    0.0144754
      76.5050      4.76203    0.0145701
      76.0050      4.76212    0.0146661
      75.5050      4.76216    0.0147633
      75.0050      4.76225    0.0148618
      74.5050      4.76229    0.0149616
      74.0050      4.76238    0.0150629
      73.5050      4.76242    0.0151654
      73.0050      4.76251    0.0152694
      72.5050      4.76255    0.0153747
      72.0050      4.76264    0.0154817
      71.5050      4.76268    0.0155900
      71.0050      4.76277    0.0157000
      70.5050      4.76286    0.0158114
      70.0050      4.76290    0.0159244
      69.5050      4.76299    0.0160391
      69.0050      4.76307    0.0161555
      68.5050      4.76316    0.0162736
      68.0050      4.76325    0.0163934
      67.5050      4.76334    0.0165149
      67.0050      4.76342    0.0166383
      66.5050      4.76351    0.0167636
      66.0050      4.76364    0.0168908
      65.5050      4.76373    0.0170199
      65.0050      4.76381    0.0171509
      64.5050      4.76390    0.0172840
      64.0050      4.76403    0.0174193
      63.5050      4.76412    0.0175566
      63.0050      4.76421    0.0176961
      62.5050      4.76434    0.0178379
      62.0050      4.76442    0.0179819
      61.5050      4.76455    0.0181284
      61.0050      4.76469    0.0182772
      60.5050      4.76482    0.0184285
      60.0050      4.76490    0.0185822
      59.5050      4.76503    0.0187386
      59.0050      4.76521    0.0188978
      58.5050      4.76534    0.0190595
      58.0050      4.76547    0.0192241
      57.5050      4.76560    0.0193915
      57.0050      4.76577    0.0195619
      56.5050      4.76595    0.0197354
      56.0050      4.76608    0.0199119
      55.5050      4.76621    0.0200915
      55.0050      4.76643    0.0202746
      54.5050      4.76660    0.0204609
      54.0050      4.76678    0.0206508
      53.5050      4.76695    0.0208441
      53.0050      4.76712    0.0210411
      52.5050      4.76734    0.0212420
      52.0050      4.76756    0.0214467
      51.5050      4.76778    0.0216554
      51.0050      4.76795    0.0218681
      50.5050      4.76817    0.0220851
      50.0050      4.76843    0.0223066
      49.5050      4.76869    0.0225324
      49.0050      4.76891    0.0227629
      48.5050      4.76917    0.0229982
      48.0050      4.76948    0.0232385
      47.5050      4.76974    0.0234837
      47.0050      4.77000    0.0237342
      46.5050      4.77031    0.0239901
      46.0050      4.77061    0.0242516
      45.5050      4.77096    0.0245190
      45.0050      4.77127    0.0247922
      44.5050      4.77161    0.0250716
      44.0050      4.77196    0.0253574
      43.5050      4.77236    0.0256499
      43.0050      4.77279    0.0259494
      42.5050      4.77318    0.0262558
      42.0050      4.77362    0.0265695
      41.5050      4.77406    0.0268909
      41.0050      4.77454    0.0272201
      40.5050      4.77502    0.0275574
      40.0050      4.77558    0.0279035
      39.5050      4.77611    0.0282582
      39.0050      4.77663    0.0286220
      38.5050      4.77728    0.0289957
      38.0050      4.77789    0.0293790
      37.5050      4.77855    0.0297727
      37.0050      4.77925    0.0301773
      36.5050      4.77999    0.0305930
      36.0050      4.78078    0.0310203
      35.5050      4.78161    0.0314599
      35.0050      4.78248    0.0319121
      34.5050      4.78340    0.0323778
      34.0050      4.78440    0.0328573
      33.5050      4.78549    0.0333513
      33.0050      4.78658    0.0338605
      32.5050      4.78781    0.0343858
      32.0050      4.78912    0.0349277
      31.5050      4.79052    0.0354874
      31.0050      4.79205    0.0360654
      30.5050      4.79371    0.0366629
      30.0050      4.79546    0.0372806
      29.5050      4.79747    0.0379203
      29.0050      4.79961    0.0385827
      28.5050      4.80202    0.0392694
      28.0050      4.80474    0.0399817
      27.5050      4.80776    0.0407214
      27.0050      4.81126    0.0414904
      26.5050      4.81539    0.0422927
      26.0050      4.82026    0.0431178
      25.5050      4.82649    0.0440010
      25.0050      4.83580    0.0452199
      24.9550      4.83708    0.0456090
      24.9050      4.83839    0.0461066
      24.8550      4.83980    0.0467342
      24.8050      4.84120    0.0474675
      24.7550      4.84256    0.0483021
      24.7050      4.84388    0.0492295
      24.6550      4.84515    0.0502411
      24.6050      4.84633    0.0513246
      24.5550      4.84738    0.0524716
      24.5050      4.84826    0.0536650
      24.4550      4.84909    0.0548878
      24.4050      4.84979    0.0561246
      24.3550      4.85048    0.0573638
      24.3050      4.85109    0.0585943
      24.2550      4.85166    0.0598044
      24.2050      4.85227    0.0609541
      24.1550      4.85288    0.0620925
      24.1050      4.85349    0.0632297
      24.0550      4.85405    0.0643769
      24.0050      4.85466    0.0655462
      23.9550      4.85518    0.0667467
      23.9050      4.85575    0.0680164
      23.8550      4.85627    0.0693397
      23.8050      4.85674    0.0706923
      23.7550      4.85717    0.0720638
      23.7050      4.85751    0.0734413
      23.6550      4.85781    0.0748106
      23.6050      4.85802    0.0761568
      23.5550      4.85810    0.0774646
      23.5050      4.85813    0.0787275
      23.4550      4.85817    0.0799380
      23.4050      4.85812    0.0810891
      23.3550      4.85811    0.0821801
      23.3050      4.85810    0.0832113
      23.2550      4.85813    0.0841471
      23.2050      4.85826    0.0850471
      23.1550      4.85838    0.0859313
      23.1050      4.85851    0.0868186
      23.0550      4.85868    0.0877301
      23.0050      4.85884    0.0886809
      22.9550      4.85905    0.0897344
      22.9050      4.85922    0.0908471
      22.8550      4.85938    0.0919969
      22.8050      4.85951    0.0931705
      22.7550      4.85963    0.0943534
      22.7050      4.85970    0.0955302
      22.6550      4.85978    0.0966558
      22.6050      4.85977    0.0977449
      22.5550      4.85976    0.0988137
      22.5050      4.85970    0.0998657
      22.4550      4.85965     0.100907
      22.4050      4.85955     0.101943
      22.3550      4.85954     0.102994
      22.3050      4.85948     0.104053
      22.2550      4.85943     0.105115
      22.2050      4.85933     0.106178
      22.1550      4.85923     0.107241
      22.1050      4.85913     0.108300
      22.0550      4.85894     0.109346
      22.0050      4.85875     0.110379
      21.9550      4.85848     0.111396
      21.9050      4.85824     0.112393
      21.8550      4.85792     0.113364
      21.8050      4.85765     0.114306
      21.7550      4.85737     0.115227
